c
     Data file for  Ac-228 decay chain - atomic wt is 228.0310
c    =========================================================
c
c    Parent gamma rays - Primary (beta) decay branch
c    -----------------------------------------------

     There are   194 parent gamma rays or X-rays in the beta branch
c
c    keV         Gamma (%)    +/-        Comment
c    ----------  ---------  ----------   -----------------------
       11.118       0.89      0.12       Th Ll
       12.952      15.1       1.7        Th La
       14.511       0.39      0.05       Th Ln
       16.154      20.        3.         Th Lb
       19.113       4.6       0.7        Th Lg
       57.81        0.525     0.014
       89.955       3.4       0.8        Th Ka2
       93.350       5.6       1.3        Th Ka1
       99.55        1.3       0.5
      105.362       2.0       0.5        Th Kb1'
      108.990       0.67      0.15       Th Kb2'
      129.03        2.9       0.9
      135.68        0.017     0.009      intensity approximate
      141.19        0.049     0.020
      146.06        0.29      0.03
      153.89        0.84      0.11
      174.18        0.032     0.012
      184.72        0.14      0.05
      191.29        0.12      0.04
      199.54        0.28      0.03
      204.37        0.157     0.020
      209.39        4.1       0.8
      210.76        0.23      0.12       intensity approximate
      216.24        0.8       0.4        intensity approximate
      220.49        0.014     0.007      intensity approximate
      223.72        0.066     0.017
      232.3         0.06      0.03       intensity approximate
      257.29        0.032     0.009
      263.57        0.058     0.017
      270.26        3.8       1.1
      279.3         0.23      0.07
      282.02        0.089     0.023
      321.9         0.25      0.05
      327.67        0.13      0.07       intensity approximate
      328.07        3.5       1.2
      332.48        0.47      0.09
      338.42       12.4       2.3
      340.94        0.52      0.05
      356.83        0.020     0.008
      372.3         0.009     0.005      intensity approximate
      377.94        0.13      0.13       intensity upper limit
      388.9         0.015     0.008      intensity approximate
      396.9         0.032     0.013
      399.2         0.037     0.015
      409.62        2.20      0.20
      416.2         0.017     0.009      intensity approximate
      419.23        0.026     0.013      intensity approximate
      440.49        0.15      0.03
      449.57        0.065     0.017
      460.84        0.05      0.03       intensity approximate
      463.10        4.6       0.3
      471.4         0.035     0.015
      474.32        0.029     0.012
      478.20        0.24      0.05
      481.8         0.009     0.005      intensity approximate
      492.36        0.02      0.01       intensity approximate
      498.26        0.043     0.022      intensity approximate
      503.7         0.21      0.04
      509.17        0.49      0.12
      515.2         0.043     0.012
      519.97        0.078     0.023
      523.18        0.12      0.03
      540.5         0.029     0.009
      546.36        0.22      0.04
      555.3         0.049     0.015
      562.65        1.01      0.14
      570.2         0.19      0.06
      572.5         0.19      0.05
      581.52        3.        3.         intensity upper limit
      583.28        0.15      0.04       ?
      615.9         0.09      0.03
      619.88        0.11      0.03
      623.59        0.16      0.16       intensity upper limit
      629.93        0.050     0.010
      640.7         0.061     0.019
      649.19        0.043     0.022      intensity approximate
      651.44        0.101     0.003      ?
      660.4         0.026     0.026      intensity upper limit
      666.4         0.046     0.015
      673.86        0.10      0.03
      677.07        0.9       0.5        intensity approximate
      687.58        0.08      0.08       intensity upper limit
      688.05        0.08      0.08       intensity upper limit
      692.50        0.0034    0.0017
      701.80        0.19      0.04
      707.49        0.15      0.04
      726.63        0.87      0.22
      737.7         0.041     0.012
      739.23        0.006     0.006      intensity upper limit
      744.32        0.010     0.010      intensity upper limit
      755.28        1.32      0.22
      772.28        1.09      0.07
      774.0         0.09      0.05       intensity approximate
      782.12        0.59      0.08
      791.05        0.021     0.009
      791.2         0.029     0.015      intensity approximate
      794.79        4.6       0.3
      816.62        0.035     0.012
      825.3         0.058     0.012
      830.59        0.63      0.06
      835.60        1.71      0.15
      840.44        0.94      0.06
      853.60        0.014     0.006
      870.47        0.066     0.013
      874.43        0.084     0.017
      877.65        0.02      0.01       intensity approximate
      884.0         0.10      0.05
      887.46        0.020     0.006
      904.29        0.89      0.06
      911.16       29.        3.
      919.19        0.028     0.008
      922.28        0.021     0.008
      923.95        0.048     0.048      intensity upper limit
      931.1         0.015     0.008      intensity approximate
      940.65        0.08      0.08       intensity upper limit
      943.9         0.107     0.020
      948.4         0.122     0.023
      958.30        0.31      0.06
      964.64        5.8       0.5
      968.97       17.4       1.7
      975.76        0.27      0.27       intensity upper limit
      979.7         0.023     0.009
      987.87        0.34      0.17       intensity approximate
      987.94        0.19      0.03
     1016.12        0.025     0.007
     1019.7         0.025     0.007
     1033.32        0.155     0.019
     1039.97        0.055     0.008
     1041.35        0.032     0.016      intensity approximate
     1054.30        0.032     0.007
     1065.05        0.171     0.016
     1095.87        0.132     0.019
     1104.01        0.017     0.006      ?
     1110.70        0.387     0.021
     1116.97        0.061     0.017
     1135.39        0.012     0.006      intensity approximate
     1142.7         0.010     0.005      intensity approximate
     1153.69        0.159     0.023
     1163.6         0.075     0.012
     1174.79        0.029     0.009
     1216.4         0.026     0.009
     1245.23        0.09      0.05       intensity approximate
     1246.60        0.57      0.06
     1249.81        0.06      0.03       intensity approximate
     1277.5         0.020     0.006
     1286.6         0.119     0.017
     1309.6         0.021     0.006
     1314.76        0.021     0.006
     1347.6         0.013     0.007      intensity approximate
     1357.6         0.029     0.009
     1374.26        0.020     0.010      intensity approximate
     1415.7         0.026     0.009
     1431.0         0.032     0.009
     1451.2         0.018     0.006
     1459.19        1.06      0.10
     1468.8         0.020     0.006
     1481.2         0.020     0.006
     1496.0         1.05      0.10
     1501.44        0.58      0.06
     1503.87        0.029     0.013
     1528.9         0.067     0.014
     1537.40        0.049     0.011
     1548.50        0.043     0.009
     1557.0         0.20      0.04
     1572.03        0.050     0.024
     1573.3         0.055     0.012
     1580.3         0.71      0.10
     1588.23        3.6       0.3
     1610.0         0.05      0.05       intensity upper limit
     1625.1         0.32      0.06
     1630.47        1.95      0.04
     1638.1         0.54      0.11
     1666.43        0.20      0.03
     1677.9         0.067     0.014
     1686.0         0.104     0.020
     1702.3         0.067     0.014
     1706.07        0.014     0.003
     1713.25        0.0047    0.0021
     1724.24        0.10      0.10       intensity upper limit
     1739.1         0.0194    0.0006
     1741.2         0.015     0.004
     1750.9         0.009     0.005      intensity approximate
     1757.88        0.0414    0.0024
     1784.5         0.0096    0.0003
     1823.47        0.051     0.008
     1835.10        0.041     0.008
     1842.29        0.048     0.004
     1871.2         0.026     0.005
     1886.92        0.118     0.007
     1900.10        0.0046    0.0013
     1907.5         0.047     0.003
     1930.3         0.025     0.005
     1952.50        0.072     0.009
     1965.3         0.024     0.003
c    -----------------------------------------------------------
c    Systematic uncertainty:  14.0 percent in the beta branch
c
c
c    Decay chain and daughter information
c    ------------------------------------
c
     This decay chain has   2 branches ------
c
c    Nuclide   Gamma Line   Brems'lung  Half Life            Branch Fraction
c    Name      File Name    File Name         (sec) (%+/-)   (type)(fraction)(%+/-)  Add?
c    -------   ----------   ----------  ------------------   ----------------------  ----  
c
     Branch 1:    2 members -----
      Ac-228   AC228A.GAM   NO_FILE     2.20700E+04   1.47   Alpha  5.5E-08   40.0    Y
      Fr-224   FR224.GAM    NO_FILE     3.90000E+00   2.56   Beta   1.000      0.0    Y
c
     Branch 2:    2 members -----
      Ac-228   AC228B.GAM   NO_FILE     2.20700E+04   1.47   Beta   1.000      0.0    Y
      Th-228   TH228.GAM    NO_FILE     6.03700E+07   0.10   Alpha  1.000      0.0    Y
