c
     Data file for   U-233 decay chain - atomic wt is 233.0396
c    =========================================================
c
c    Parent gamma rays
c    -----------------

     There are   153 parent gamma rays or X-rays
c
c    keV         Gamma (%)    +/-        Comment
c    ----------  ---------  ----------   -----------------------
       11.118       0.15      0.06       Th Ll
       12.952       2.6       1.0        Th La
       14.511       0.057     0.023      Th Ln
       16.141       3.3       1.2        Th Lb
       19.148       0.8       0.3        Th Lg
       25.304       0.00121   0.00024
       29.191       0.0068    0.0014
       31.24        0.00027   0.00005    ?
       32.27        0.00099   0.00020
       37.85        0.00036   0.00007
       42.441       0.060     0.012
       50.59        0.0       0.0        intensity unknown
       52.613       0.00025   0.00008
       53.559       0.0043    0.0003
       54.702       0.014     0.003
       63.69        3.3E-05   0.7E-05
       65.51        0.0       0.0        intensity unknown
       66.11        0.00084   0.00017
       67.960       0.00032   0.00006
       68.97        0.000108  0.000021
       70.35        0.00060   0.00012
       71.847       0.0027    0.0005
       72.821       0.00059   0.00012
       74.500       0.0015    0.0003
       76.32        0.00039   0.00008
       77.10        0.00072   0.00014
       78.41        6.0E-05   1.2E-05
       82.957       0.00018   0.00004
       84.27        7.5E-05   2.5E-05
       85.402       0.00019   0.00004
       86.74        0.00013   0.00003
       87.24        0.00019   0.00004
       88.43        0.00044   0.00009
       89.957       0.0104    0.0008
       90.994       0.00033   0.00007
       93.360       0.0169    0.0014
       96.215       0.0014    0.0003
       97.143       0.022     0.004
      100.008       5.5E-05   1.1E-05
      101.80        9.0E-05   1.8E-05
      103.375       0.00010   0.00002
      105.362       0.0061    0.0005
      108.990       0.00203   0.00017
      109.47        0.00031   0.00003
      111.935       0.00047   0.00005
      114.28        0.00025   0.00008
      116.26        0.00021   0.00004
      117.155       0.0028    0.0004
      118.97        0.0032    0.0006
      120.81        0.0021    0.0004
      123.91        0.00065   0.00013
      125.398       6.5E-05   1.3E-05
      129.2         7.0E-05   1.4E-05
      131.20        3.3E-05   0.7E-05
      135.328       0.0022    0.0004
      138.5         2.E-05    1.E-05     intensity approximate
      139.76        0.000105  0.000021
      141.58        0.0       0.0        intensity unknown
      144.52        0.00030   0.00007
      145.286       0.0016    0.0003
      146.347       0.0063    0.0010
      148.15        0.00036   0.00007
      149.80        0.000127  0.000025
      152.621       0.0       0.0        intensity unknown
      153.31        5.5E-05   1.1E-05
      154.69        0.00015   0.00003
      155.989       5.8E-05   1.1E-05
      162.52        7.5E-05   2.3E-05
      164.512       0.0066    0.0010
      165.493       0.00039   0.00008
      168.98        6.7E-05   1.3E-05
      170.794       0.00014   0.00003
      172.35        3.5E-05   0.7E-05
      174.162       0.00023   0.00005
      176.10        4.3E-05   0.9E-05
      177.78        2.0E-05   0.4E-05
      184.17        2.5E-05   0.5E-05
      185.782       4.0E-05   0.8E-05
      187.942       0.0020    0.0004
      192.12        4.0E-05   0.8E-05
      200.67        1.0E-06   0.2E-06
      205.99        6.5E-05   1.3E-05
      208.149       0.0025    0.0        +/- unknown, reference intensity?
      212.29        0.00014   0.00003
      216.08        0.00066   0.00013
      217.133       0.0035    0.0007
      217.61        5.E-05    1.E-05
      219.424       0.00015   0.00003
      223.357       3.3E-05   0.7E-05
      225.0         1.0E-05   0.2E-05
      226.74        1.0E-05   0.2E-05
      228.07        2.0E-05   0.4E-05
      230.086       6.7E-05   1.3E-05
      236.39        5.E-05    1.E-05
      240.364       0.00038   0.00008
      245.294       0.0035    0.0005
      248.661       0.0045    0.0012
      252.50        3.8E-05   0.8E-05
      255.92        4.3E-05   0.9E-05
      259.30        0.00018   0.00004
      260.40        0.000108  0.000021
      261.88        0.00031   0.00006
      268.619       0.00025   0.00005
      272.27        6.3E-05   1.3E-05
      274.692       0.00047   0.00009
      278.059       0.00122   0.00022
      284.22        1.0E-05   0.2E-05
      287.949       0.00108   0.00020
      291.317       0.0052    0.0008
      293.923       0.00014   0.00003
      295.2         2.3E-05   0.5E-05
      302.84        7.0E-05   1.4E-05
      309.37        7.3E-05   1.5E-05
      311.38        2.8E-05   1.0E-05    ?
      317.133       0.0088    0.0012
      320.508       0.0031    0.0005
      323.321       0.00084   0.00017
      328.69        6.5E-05   1.3E-05
      336.579       0.00059   0.00012
      339.64        7.5E-06   2.5E-06
      351.782       4.5E-05   0.9E-05
      354.00        5.8E-05   1.1E-05
      365.762       0.00082   0.00016
      383.4         9.5E-05   1.9E-05
      384.0         2.E-05    1.E-05     intensity approximate
      394.34        7.5E-06   2.5E-06
      396.65        8.3E-06   1.7E-06
      402.37        8.3E-06   1.7E-06    ?
      406.7         5.3E-06   1.1E-06    ?
      416.4         1.00E-05  0.25E-05
      436.78        5.E-06    2.5E-06    intensity approximate
      449.6         1.00E-05  0.25E-05
      459.77        8.3E-06   1.7E-06    ?
      471.3         1.5E-05   0.3E-05
      479.          1.5E-05   0.3E-05
      484.05        4.3E-06   0.9E-06    ?
      514.0         0.0       0.0        intensity unknown
      537.6         0.0       0.0        intensity unknown
      540.27        5.3E-06   1.1E-06    ?
      545.1         2.4E-06   0.5E-06    ?
      562.8         0.0       0.0        intensity unknown
      569.37        3.8E-06   0.8E-06    ?
      578.47        5.E-06    1.E-06     ?
      620.87        2.3E-06   0.5E-06    ?
      656.97        3.0E-06   0.6E-06    ?
      707.47        2.7E-06   0.6E-06    ?
      710.8         0.0       0.0        intensity unknown
      826.3         0.0       0.0        intensity unknown
      867.9         2.1E-06   0.4E-06    ?
      920.0         0.0       0.0        intensity unknown
     1003.0         8.3E-06   1.7E-06    ?
     1055.0         0.0       0.0        intensity unknown
     1119.0         8.3E-06   1.7E-06    ?
c    -----------------------------------------------------------
c    Systematic uncertainty:  20.0 percent
c
c
c    Decay chain and daughter information
c    ------------------------------------
c
     This decay chain has   1 branches ------
c
c    Nuclide   Gamma Line   Brems'lung  Half Life            Branch Fraction
c    Name      File Name    File Name         (sec) (%+/-)   (type)(fraction)(%+/-)  Add?
c    -------   ----------   ----------  ------------------   ----------------------  ----  
c
     Branch 1:    2 members -----
       U-233   U233.GAM     NO_FILE     5.02400E+12   1.26   Alpha  1.0        0.0    Y
      Th-229   TH229.GAM    NO_FILE     2.31600E+11   2.18   Alpha  1.0        0.0    Y
